File: v44/content/Data/Fehlerdaten/Detektorscan.UXD
; C:\DIFFDAT1\Praktikum\V44_Hach_Kob\Detektorscan.raw(Diffrac Plus V1.01 file) converted by XCH V1.0
_FILEVERSION=2
_SITE='Deutschland'
_USER='Administrator'
_GONIOMETER_CODE=4885
; D8 Theta/Theta; Special
_SAMPLE_CHANGER_CODE=0
_ATTACHMENTS_CODE=0
_GONIOMETER_RADIUS=350
_FIXED_DIVSLIT=0.600000
_FIXED_SAMPLESLIT=0.000000
_FIXED_DETSLIT=11.66
_MONOCHROMATOR=0
; None
_THIN_FILM='N'
_BETA_FILTER='Y'
_FIXED_ANTISLIT=8.340000
_ANALYZER_CODE=0
; None
_DATEMEASURED='18-Dec-2023 08:29:32'
_WL_UNIT='A'
_WL1=1.540600
_WL2=1.544390
_WL3=1.392220
_WLRATIO=0.500000
_ANODE='Cu'
; (Data for Range number 1)
_DRIVE='2THETA'
_STEPTIME=0.500000
_STEPSIZE=0.010000
_STEPMODE='S'
_START=-0.500000
_THETA=0.000000
_2THETA=-0.500000
_KHI=0.000000
_PHI=92.46
_X=-0.016000
_Y=0.000000
_Z=-20
_DIVERGENCE=0.000000
_ANTISCATTER=0.000000
_DETECTOR=5
_DETECTORSLIT='unkn'
_AUX1=0.000000
_AUX2=0.000000
_AUX3=0.000000
_TIMESTARTED=2.000000
_TEMP_RATE=-1.000000
_TEMP_DELAY=-1.000000
_KV=40
_MA=35
_RANGE_WL=1.540600
_3DPLANE=0
_GONIOMETER=-0.500000
_PSDCHANNEL0=0
_2THETACOUNTS
  -0.5000       132
  -0.4900       167
  -0.4800       204
  -0.4700       250
  -0.4600       262
  -0.4500       321
  -0.4400       356
  -0.4300       401
  -0.4200       443
  -0.4100       517
  -0.4000       525
  -0.3900       647
  -0.3800       790
  -0.3700       854
  -0.3600       933
  -0.3500      1009
  -0.3400      1120
  -0.3300      1272
  -0.3200      1479
  -0.3100      1600
  -0.3000      1863
  -0.2900      2039
  -0.2800      2307
  -0.2700      2509
  -0.2600      2618
  -0.2500      2878
  -0.2400      3220
  -0.2300      3738
  -0.2200      4386
  -0.2100      5288
  -0.2000      6067
  -0.1900      7091
  -0.1800      8045
  -0.1700      9307
  -0.1600     11316
  -0.1500     13835
  -0.1400     16553
  -0.1300     20195
  -0.1200     25184
  -0.1100     33805
  -0.1000     46127
  -0.0900     65391
  -0.0800     97369
  -0.0700    156175
  -0.0600    219138
  -0.0500    313385
  -0.0400    397299
  -0.0300    469410
  -0.0200    537785
  -0.0100    603118
   0.0000    636369
   0.0100    620055
   0.0200    528889
   0.0300    398508
   0.0400    267755
   0.0500    177244
   0.0600    121494
   0.0700     90692
   0.0800     72085
   0.0900     59089
   0.1000     47407
   0.1100     38276
   0.1200     30236
   0.1300     25461
   0.1400     22698
   0.1500     21015
   0.1600     19608
   0.1700     15696
   0.1800     11578
   0.1900      7766
   0.2000      4658
   0.2100      3552
   0.2200      2939
   0.2300      2475
   0.2400      2185
   0.2500      1927
   0.2600      1699
   0.2700      1662
   0.2800      1579
   0.2900      1455
   0.3000      1310
   0.3100      1254
   0.3200      1053
   0.3300       900
   0.3400       768
   0.3500       609
   0.3600       504
   0.3700       482
   0.3800       393
   0.3900       349
   0.4000       306
   0.4100       318
   0.4200       251
   0.4300       246
   0.4400       208
   0.4500       192
   0.4600       181
   0.4700       149
   0.4800       133
   0.4900       144
   0.5000       145