File: v44/content/Data/Fehlerdaten/Rocking3.UXD
; C:\DIFFDAT1\Praktikum\V44_Hach_Kob\Rocking3.raw(Diffrac Plus V1.01 file) converted by XCH V1.0
_FILEVERSION=2
_SITE='Deutschland'
_USER='Administrator'
_GONIOMETER_CODE=4885
; D8 Theta/Theta; Special
_SAMPLE_CHANGER_CODE=0
_ATTACHMENTS_CODE=0
_GONIOMETER_RADIUS=350
_FIXED_DIVSLIT=0.600000
_FIXED_SAMPLESLIT=0.000000
_FIXED_DETSLIT=11.66
_MONOCHROMATOR=0
; None
_THIN_FILM='N'
_BETA_FILTER='Y'
_FIXED_ANTISLIT=8.340000
_ANALYZER_CODE=0
; None
_DATEMEASURED='18-Dec-2023 09:04:11'
_WL_UNIT='A'
_WL1=1.540600
_WL2=1.544390
_WL3=1.392220
_WLRATIO=0.500000
_ANODE='Cu'
; (Data for Range number 1)
_DRIVE='THETA'
_STEPTIME=1.000000
_STEPSIZE=0.005000
_STEPMODE='S'
_START=0.200000
_THETA=0.200000
_2THETA=0.300000
_KHI=0.000000
_PHI=92.46
_X=-2.264000
_Y=0.000000
_Z=0.249000
_DIVERGENCE=0.000000
_ANTISCATTER=0.000000
_DETECTOR=5
_DETECTORSLIT='unkn'
_AUX1=0.000000
_AUX2=0.000000
_AUX3=0.000000
_TIMESTARTED=2.000000
_TEMP_RATE=-1.000000
_TEMP_DELAY=-1.000000
_KV=40
_MA=35
_RANGE_WL=1.540600
_3DPLANE=0
_GONIOMETER=0.300000
_PSDCHANNEL0=0
_2THETACOUNTS
   0.2000     15871
   0.2050     13763
   0.2100     10384
   0.2150      8180
   0.2200      6339
   0.2250      5300
   0.2300      4626
   0.2350      4129
   0.2400      3720
   0.2450      3430
   0.2500      3269
   0.2550      3091
   0.2600      3089
   0.2650      2926
   0.2700      2886
   0.2750      2873
   0.2800      2731
   0.2850      2840
   0.2900      2733
   0.2950      2641
   0.3000      2675
   0.3050      2706
   0.3100      2575
   0.3150      2657
   0.3200      2565
   0.3250      2699
   0.3300      2606
   0.3350      2685
   0.3400      2733
   0.3450      2667
   0.3500      2658
   0.3550      2663
   0.3600      2568
   0.3650      2610
   0.3700      2648
   0.3750      2676
   0.3800      2620
   0.3850      2650
   0.3900      2614
   0.3950      2738
   0.4000      2685
   0.4050      2803
   0.4100      2632
   0.4150      2668
   0.4200      2708
   0.4250      2711
   0.4300      2714
   0.4350      2657
   0.4400      2534
   0.4450      2668
   0.4500      2614
   0.4550      2646
   0.4600      2606
   0.4650      2690
   0.4700      2716
   0.4750      2703
   0.4800      2633
   0.4850      2664
   0.4900      2593
   0.4950      2693
   0.5000      2646