File: v44/content/Data/Fehlerdaten/Rocking2.UXD
; C:\DIFFDAT1\Praktikum\V44_Hach_Kob\Rocking2.raw(Diffrac Plus V1.01 file) converted by XCH V1.0
_FILEVERSION=2
_SITE='Deutschland'
_USER='Administrator'
_GONIOMETER_CODE=4885
; D8 Theta/Theta; Special
_SAMPLE_CHANGER_CODE=0
_ATTACHMENTS_CODE=0
_GONIOMETER_RADIUS=350
_FIXED_DIVSLIT=0.600000
_FIXED_SAMPLESLIT=0.000000
_FIXED_DETSLIT=11.66
_MONOCHROMATOR=0
; None
_THIN_FILM='N'
_BETA_FILTER='Y'
_FIXED_ANTISLIT=8.340000
_ANALYZER_CODE=0
; None
_DATEMEASURED='18-Dec-2023 08:56:15'
_WL_UNIT='A'
_WL1=1.540600
_WL2=1.544390
_WL3=1.392220
_WLRATIO=0.500000
_ANODE='Cu'
; (Data for Range number 1)
_DRIVE='THETA'
_STEPTIME=1.000000
_STEPSIZE=0.005000
_STEPMODE='S'
_START=0.000000
_THETA=0.000000
_2THETA=0.300000
_KHI=0.000000
_PHI=92.46
_X=-2.264000
_Y=0.000000
_Z=0.242000
_DIVERGENCE=0.000000
_ANTISCATTER=0.000000
_DETECTOR=5
_DETECTORSLIT='unkn'
_AUX1=0.000000
_AUX2=0.000000
_AUX3=0.000000
_TIMESTARTED=2.000000
_TEMP_RATE=-1.000000
_TEMP_DELAY=-1.000000
_KV=40
_MA=35
_RANGE_WL=1.540600
_3DPLANE=0
_GONIOMETER=0.300000
_PSDCHANNEL0=0
_2THETACOUNTS
   0.0000      2784
   0.0050      2779
   0.0100      2874
   0.0150      2801
   0.0200      2697
   0.0250      2854
   0.0300      2817
   0.0350      2684
   0.0400      2838
   0.0450      2747
   0.0500      2721
   0.0550      2698
   0.0600      2886
   0.0650      2825
   0.0700      2720
   0.0750      2817
   0.0800      2772
   0.0850      2764
   0.0900      2770
   0.0950      2711
   0.1000      2827
   0.1050      2822
   0.1100      2790
   0.1150      2828
   0.1200      2876
   0.1250      2921
   0.1300      2900
   0.1350      2984
   0.1400      3050
   0.1450      3325
   0.1500      3459
   0.1550      3650
   0.1600      4157
   0.1650      4725
   0.1700      5685
   0.1750      6724
   0.1800      8893
   0.1850     12226
   0.1900     17852
   0.1950     24113
   0.2000     29350
   0.2050     34775
   0.2100     43541
   0.2150     64848
   0.2200    115384
   0.2250    181409
   0.2300    270125
   0.2350    304411
   0.2400    348501
   0.2450    348066
   0.2500    298012
   0.2550    209484
   0.2600     93091
   0.2650     64681
   0.2700     41026
   0.2750     32548
   0.2800     28098
   0.2850     24035
   0.2900     19408
   0.2950     15158
   0.3000     11130