File: v44/content/Data/Fehlerdaten/ZScan2.UXD
; C:\DIFFDAT1\Praktikum\V44_Hach_Kob\ZScan2.raw(Diffrac Plus V1.01 file) converted by XCH V1.0
_FILEVERSION=2
_SITE='Deutschland'
_USER='Administrator'
_GONIOMETER_CODE=4885
; D8 Theta/Theta; Special
_SAMPLE_CHANGER_CODE=0
_ATTACHMENTS_CODE=0
_GONIOMETER_RADIUS=350
_FIXED_DIVSLIT=0.600000
_FIXED_SAMPLESLIT=0.000000
_FIXED_DETSLIT=11.66
_MONOCHROMATOR=0
; None
_THIN_FILM='N'
_BETA_FILTER='Y'
_FIXED_ANTISLIT=8.340000
_ANALYZER_CODE=0
; None
_DATEMEASURED='18-Dec-2023 08:52:44'
_WL_UNIT='A'
_WL1=1.540600
_WL2=1.544390
_WL3=1.392220
_WLRATIO=0.500000
_ANODE='Cu'
; (Data for Range number 1)
_DRIVE='Z'
_STEPTIME=1.000000
_STEPSIZE=0.020000
_STEPMODE='S'
_START=-0.500000
_THETA=0.081600
_2THETA=0.000000
_KHI=0.000000
_PHI=92.46
_X=-2.264000
_Y=0.000000
_Z=-0.500000
_DIVERGENCE=0.000000
_ANTISCATTER=0.000000
_DETECTOR=5
_DETECTORSLIT='unkn'
_AUX1=0.000000
_AUX2=0.000000
_AUX3=0.000000
_TIMESTARTED=3.000000
_TEMP_RATE=-1.000000
_TEMP_DELAY=-1.000000
_KV=40
_MA=35
_RANGE_WL=1.540600
_3DPLANE=0
_GONIOMETER=0.000000
_PSDCHANNEL0=0
_2THETACOUNTS
  -0.5000   1251300
  -0.4800   1249020
  -0.4600   1250490
  -0.4400   1256070
  -0.4200   1251500
  -0.4000   1250400
  -0.3800   1250580
  -0.3600   1251150
  -0.3400   1250080
  -0.3200   1246830
  -0.3000   1252150
  -0.2800   1247630
  -0.2600   1245210
  -0.2400   1247210
  -0.2200   1251040
  -0.2000   1249330
  -0.1800   1253290
  -0.1600   1247070
  -0.1400   1241080
  -0.1200   1258230
  -0.1000   1253850
  -0.0800   1248730
  -0.0600   1253390
  -0.0400   1253790
  -0.0200   1249860
   0.0000   1253470
   0.0200   1254430
   0.0400   1262820
   0.0600   1266420
   0.0800   1265710
   0.1000   1269100
   0.1200   1271660
   0.1400   1280330
   0.1600   1235790
   0.1800   1142560
   0.2000   1002780
   0.2200    838253
   0.2400    667961
   0.2600    494106
   0.2800    317098
   0.3000    167275
   0.3200     55542
   0.3400      4272
   0.3600       115
   0.3800        27
   0.4000         8
   0.4200         4
   0.4400         3
   0.4600         0
   0.4800         0
   0.5000         0