File: v44/content/Data/diffuse.UXD
#; C:\DIFFDAT1\Praktikum\Knierim_Karas\diffuse.raw(Diffrac Plus V1.01 file) converted by XCH V1.0
#_FILEVERSION=2
#_SITE='Deutschland'
#_USER='Administrator'
#_GONIOMETER_CODE=4885
#; D8 Theta/Theta; Special
#_SAMPLE_CHANGER_CODE=0
#_ATTACHMENTS_CODE=0
#_GONIOMETER_RADIUS=350
#_FIXED_DIVSLIT=0.600000
#_FIXED_SAMPLESLIT=0.000000
#_FIXED_DETSLIT=11.66
#_MONOCHROMATOR=0
#; None
#_THIN_FILM='N'
#_BETA_FILTER='Y'
#_FIXED_ANTISLIT=8.340000
#_ANALYZER_CODE=0
#; None
#_DATEMEASURED='27-Nov-2023 11:23:04'
#_WL_UNIT='A'
#_WL1=1.540600
#_WL2=1.544390
#_WL3=1.392220
#_WLRATIO=0.500000
#_ANODE='Cu'
#; (Data for Range number 1)
#_DRIVE='THETA'
#_STEPTIME=5.000660
#_STEPSIZE=0.005000
#_STEPMODE='C'
#_START=0.000000
#_THETA=0.000000
#_2THETA=0.200000
#_KHI=0.000000
#_PHI=92.46
#_X=-2.045000
#_Y=1.000000
#_Z=-0.038000
#_DIVERGENCE=0.000000
#_ANTISCATTER=0.000000
#_DETECTOR=5
#_DETECTORSLIT='unkn'
#_AUX1=0.000000
#_AUX2=0.000000
#_AUX3=0.000000
#_TIMESTARTED=2.000000
#_TEMP_RATE=-1.000000
#_TEMP_DELAY=-1.000000
#_KV=40
#_MA=35
#_RANGE_WL=1.540600
#_3DPLANE=0
#_GONIOMETER=0.197500
#_PSDCHANNEL0=0
#_2THETACOUNTS
   0.0000    484036
   0.0100    349999
   0.0200    239696
   0.0300    144678
   0.0400     85826
   0.0500     66530
   0.0600     54433
   0.0700     45184
   0.0800     37244
   0.0900     30846
   0.1000     24858
   0.1100     20114
   0.1200     16901
   0.1300     14448
   0.1400     12803
   0.1500     11271
   0.1600     10178
   0.1700      9414
   0.1800      8552
   0.1900      7876
   0.2000      7212
   0.2100      6873
   0.2200      6102
   0.2300      5265
   0.2400      4666
   0.2500      3984
   0.2600      3504
   0.2700      3155
   0.2800      2921
   0.2900      2622
   0.3000      2455
   0.3100      2431
   0.3200      2184
   0.3300      2210
   0.3400      2059
   0.3500      1940
   0.3600      1871
   0.3700      1893
   0.3800      1803
   0.3900      1816
   0.4000      1598
   0.4100      1603
   0.4200      1452
   0.4300      1387
   0.4400      1277
   0.4500      1245
   0.4600      1128
   0.4700       946
   0.4800       927
   0.4900       844
   0.5000       742
   0.5100       644
   0.5200       580
   0.5300       506
   0.5400       418
   0.5500       372
   0.5600       361
   0.5700       310
   0.5800       229
   0.5900       164
   0.6000        71
   0.6100        51
   0.6200        64
   0.6300        56
   0.6400        62
   0.6500        51
   0.6600        51
   0.6700        47
   0.6800        52
   0.6900        54
   0.7000        36
   0.7100        37
   0.7200        40
   0.7300        34
   0.7400        33
   0.7500        48
   0.7600        29
   0.7700        32
   0.7800        25
   0.7900        36
   0.8000        25
   0.8100        17
   0.8200        26
   0.8300        20
   0.8400        16
   0.8500        21
   0.8600        19
   0.8700        25
   0.8800        13
   0.8900        16
   0.9000        25
   0.9100        13
   0.9200        21
   0.9300        12
   0.9400        16
   0.9500        14
   0.9600         9
   0.9700        20
   0.9800        15
   0.9900         8
   1.0000        14
   1.0100        10
   1.0200        11
   1.0300        17
   1.0400         9
   1.0500        15
   1.0600         7
   1.0700        16
   1.0800        10
   1.0900        12
   1.1000         4
   1.1100         5
   1.1200         5
   1.1300        14
   1.1400         9
   1.1500         8
   1.1600         6
   1.1700        11
   1.1800         9
   1.1900         7
   1.2000         9
   1.2100         7
   1.2200         4
   1.2300        12
   1.2400         4
   1.2500         6
   1.2600         4
   1.2700         5
   1.2800         5
   1.2900         3
   1.3000         5
   1.3100         7
   1.3200         9
   1.3300         6
   1.3400         1
   1.3500         7
   1.3600         3
   1.3700         6
   1.3800         3
   1.3900         9
   1.4000         5
   1.4100         2
   1.4200         4
   1.4300         7
   1.4400         3
   1.4500         5
   1.4600         2
   1.4700         3
   1.4800         3
   1.4900         4
   1.5000         4
   1.5100         4
   1.5200         5
   1.5300         4
   1.5400         0
   1.5500         4
   1.5600         4
   1.5700         0
   1.5800         4
   1.5900         3
   1.6000         2
   1.6100         5
   1.6200         8
   1.6300         3
   1.6400         4
   1.6500         3
   1.6600         2
   1.6700         2
   1.6800         1
   1.6900         2
   1.7000         4
   1.7100         2
   1.7200         3
   1.7300         4
   1.7400         2
   1.7500         1
   1.7600         0
   1.7700         3
   1.7800         3
   1.7900         3
   1.8000         3
   1.8100         6
   1.8200         2
   1.8300         1
   1.8400         3
   1.8500         3
   1.8600         2
   1.8700         4
   1.8800         4
   1.8900         3
   1.9000         4
   1.9100         4
   1.9200         6
   1.9300         2
   1.9400         3
   1.9500         1
   1.9600         3
   1.9700         4
   1.9800         0
   1.9900         1
   2.0000         3
   2.0100         4
   2.0200         3
   2.0300         2
   2.0400         3
   2.0500         3
   2.0600         3
   2.0700         1
   2.0800         4
   2.0900         4
   2.1000         2
   2.1100         2
   2.1200         1
   2.1300         2
   2.1400         1
   2.1500         4
   2.1600         1
   2.1700         5
   2.1800         2
   2.1900         3
   2.2000         0
   2.2100         2
   2.2200         1
   2.2300         1
   2.2400         2
   2.2500         0
   2.2600         4
   2.2700         2
   2.2800         2
   2.2900         2
   2.3000         3
   2.3100         3
   2.3200         2
   2.3300         3
   2.3400         3
   2.3500         2
   2.3600         5
   2.3700         3
   2.3800         1
   2.3900         0
   2.4000         2
   2.4100         3
   2.4200         2
   2.4300         0
   2.4400         1
   2.4500         2
   2.4600         2
   2.4700         2
   2.4800         1
   2.4900         1
   2.5000         2