File: v44/content/Data/reflectivity.UXD
#; C:\DIFFDAT1\Praktikum\Knierim_Karas\reflectivity.raw(Diffrac Plus V1.01 file) converted by XCH V1.0
#_FILEVERSION=2
#_SITE='Deutschland'
#_USER='Administrator'
#_GONIOMETER_CODE=4885
#; D8 Theta/Theta; Special
#_SAMPLE_CHANGER_CODE=0
#_ATTACHMENTS_CODE=0
#_GONIOMETER_RADIUS=350
#_FIXED_DIVSLIT=0.600000
#_FIXED_SAMPLESLIT=0.000000
#_FIXED_DETSLIT=11.66
#_MONOCHROMATOR=0
#; None
#_THIN_FILM='N'
#_BETA_FILTER='Y'
#_FIXED_ANTISLIT=8.340000
#_ANALYZER_CODE=0
#; None
#_DATEMEASURED='27-Nov-2023 10:39:13'
#_WL_UNIT='A'
#_WL1=1.540600
#_WL2=1.544390
#_WL3=1.392220
#_WLRATIO=0.500000
#_ANODE='Cu'
#; (Data for Range number 1)
#_DRIVE='THETA'
#_STEPTIME=5.000660
#_STEPSIZE=0.005000
#_STEPMODE='C'
#_START=0.000000
#_THETA=0.000000
#_2THETA=0.000000
#_KHI=0.000000
#_PHI=92.46
#_X=-2.045000
#_Y=1.000000
#_Z=-0.038000
#_DIVERGENCE=0.000000
#_ANTISCATTER=0.000000
#_DETECTOR=5
#_DETECTORSLIT='unkn'
#_AUX1=0.000000
#_AUX2=0.000000
#_AUX3=0.000000
#_TIMESTARTED=2.000000
#_TEMP_RATE=-1.000000
#_TEMP_DELAY=-1.000000
#_KV=40
#_MA=35
#_RANGE_WL=1.540600
#_3DPLANE=0
#_GONIOMETER=-0.002500
#_PSDCHANNEL0=0
#_2THETACOUNTS
   0.0000   6648740
   0.0100   7037030
   0.0200   7358860
   0.0300   7473140
   0.0400   6964740
   0.0500   5950190
   0.0600   3693920
   0.0700   2683710
   0.0800   2335670
   0.0900   2233390
   0.1000   2250870
   0.1100   2348140
   0.1200   2470520
   0.1300   2607800
   0.1400   2771620
   0.1500   2963860
   0.1600   3104260
   0.1700   3238380
   0.1800   3357660
   0.1900   3437180
   0.2000   3498740
   0.2100   3516170
   0.2200   3440550
   0.2300   3188440
   0.2400   2756440
   0.2500   2198100
   0.2600   1561770
   0.2700    931118
   0.2800    520370
   0.2900    333601
   0.3000    281917
   0.3100    221310
   0.3200    152195
   0.3300    119333
   0.3400    114191
   0.3500    103625
   0.3600     80655
   0.3700     62284
   0.3800     58331
   0.3900     57849
   0.4000     50852
   0.4100     40135
   0.4200     33851
   0.4300     34070
   0.4400     33459
   0.4500     28753
   0.4600     23517
   0.4700     21174
   0.4800     21559
   0.4900     21127
   0.5000     18338
   0.5100     15006
   0.5200     13762
   0.5300     14052
   0.5400     13540
   0.5500     12023
   0.5600      9933
   0.5700      9188
   0.5800      9321
   0.5900      9146
   0.6000      8149
   0.6100      6686
   0.6200      6221
   0.6300      6379
   0.6400      6254
   0.6500      5690
   0.6600      4798
   0.6700      4264
   0.6800      4301
   0.6900      4188
   0.7000      3775
   0.7100      3281
   0.7200      2896
   0.7300      2826
   0.7400      2878
   0.7500      2778
   0.7600      2390
   0.7700      2067
   0.7800      2037
   0.7900      2071
   0.8000      2115
   0.8100      1873
   0.8200      1625
   0.8300      1416
   0.8400      1449
   0.8500      1464
   0.8600      1377
   0.8700      1233
   0.8800      1021
   0.8900      1036
   0.9000      1091
   0.9100      1011
   0.9200       952
   0.9300       806
   0.9400       731
   0.9500       810
   0.9600       776
   0.9700       694
   0.9800       603
   0.9900       509
   1.0000       566
   1.0100       579
   1.0200       543
   1.0300       517
   1.0400       458
   1.0500       438
   1.0600       405
   1.0700       431
   1.0800       366
   1.0900       308
   1.1000       301
   1.1100       299
   1.1200       284
   1.1300       314
   1.1400       232
   1.1500       253
   1.1600       227
   1.1700       234
   1.1800       174
   1.1900       187
   1.2000       174
   1.2100       161
   1.2200       169
   1.2300       185
   1.2400       173
   1.2500       156
   1.2600       122
   1.2700       138
   1.2800       141
   1.2900       117
   1.3000       116
   1.3100        89
   1.3200       108
   1.3300        85
   1.3400        82
   1.3500        87
   1.3600        85
   1.3700        74
   1.3800        82
   1.3900       102
   1.4000        67
   1.4100        53
   1.4200        49
   1.4300        53
   1.4400        54
   1.4500        56
   1.4600        53
   1.4700        51
   1.4800        51
   1.4900        35
   1.5000        49
   1.5100        37
   1.5200        48
   1.5300        30
   1.5400        46
   1.5500        31
   1.5600        42
   1.5700        34
   1.5800        35
   1.5900        34
   1.6000        25
   1.6100        34
   1.6200        25
   1.6300        28
   1.6400        26
   1.6500        21
   1.6600        19
   1.6700        17
   1.6800        14
   1.6900        20
   1.7000        18
   1.7100        24
   1.7200        20
   1.7300        20
   1.7400        21
   1.7500        17
   1.7600        26
   1.7700        21
   1.7800        13
   1.7900        18
   1.8000        16
   1.8100        12
   1.8200        14
   1.8300        11
   1.8400         8
   1.8500        11
   1.8600        12
   1.8700        12
   1.8800         8
   1.8900         9
   1.9000        10
   1.9100         9
   1.9200        10
   1.9300         8
   1.9400        16
   1.9500         4
   1.9600         4
   1.9700        13
   1.9800        10
   1.9900         7
   2.0000         7
   2.0100         8
   2.0200         9
   2.0300         8
   2.0400         5
   2.0500         5
   2.0600         9
   2.0700         3
   2.0800         7
   2.0900         6
   2.1000         6
   2.1100         4
   2.1200         8
   2.1300         4
   2.1400         6
   2.1500         8
   2.1600         7
   2.1700         3
   2.1800         7
   2.1900         7
   2.2000         4
   2.2100         5
   2.2200         4
   2.2300         3
   2.2400         3
   2.2500         4
   2.2600         5
   2.2700         5
   2.2800         8
   2.2900         2
   2.3000         4
   2.3100         3
   2.3200         2
   2.3300         3
   2.3400         2
   2.3500         2
   2.3600         5
   2.3700         2
   2.3800         4
   2.3900         2
   2.4000         4
   2.4100         4
   2.4200         2
   2.4300         3
   2.4400         1
   2.4500         4
   2.4600         2
   2.4700         2
   2.4800         2
   2.4900         1
   2.5000         5